#Distance along X (mm)  Intensity(mA)

6.0 0.0027

6.5 0.004

7.0 0.006

7.3 0.009

7.6 0.021

7.8 0.06

7.9 0.133

8.1 0.2

8.4 0.8

8.9 1.5

9.2 1.8

9.4 1.9

9.6 2

9.8 2.1

10.0    2

10.2    1.7

10.4    1.3

10.6    0.5

10.7    0.3

11.1    0.17

11.4    0.105

11.8    0.042

12.2    0.014

12.6    0.006

13.0    0.003

13.5    0.001

14.0    0.0006

14.5    0.0002

15.0    0.0001


