#Distance along X (mm)  Intensity(mA)

9   0.0002

9.1 0.0002

9.2 0.0003

9.3 0.0003

9.4 0.0003

9.5 0.0006

9.6 0.0028

9.7 0.0445

9.8 0.1289

9.9 0.3

10  0.6

10.1    1.1

10.2    2.5

10.3    4.4

10.4    5.5

10.5    6

10.6    6.1

10.7    5.8

10.8    4.9

10.9    3.2

11  1.3

11.1    0.5

11.2    0.108

11.3    0.027

11.5    0.0017

11.74   0.0001


